======================================================================
RELATÓRIO DE ANÁLISE REOLÓGICA
======================================================================
Sessão: 20251029_225051
Data da Geração: 2025-10-29 22:51:21
Pasta de Saída: resultados_analise_reologica\FC0.3303-1.5x43_20251029_225051

--- PARÂMETROS GLOBAIS DO ENSAIO ---
Densidade da Pasta: 1.630 g/cm³
Tempo de Extrusão: Variável (ver tabela)
Fator de Calibração Empírico Aplicado: 0.3303

--- ORIGEM DOS DADOS EXPERIMENTAIS ---
Método de Entrada: Arquivo(s) JSON
  Arquivos JSON Utilizados (da pasta 'resultados_testes_reometro/'):
    - 40%1.5x43mm_2025-10-29.json

--- CONFIGURAÇÃO DE CORREÇÕES E CALIBRAÇÃO ---
Correção de Bagley (ao vivo): Não
Correção de Mooney (ao vivo): Não

--- GEOMETRIA DO CAPILAR ÚNICO (SEM CORREÇÕES) ---
Diâmetro: 1.500 mm
Comprimento: 43.00 mm

--- RESULTADOS PRINCIPAIS (CURVA DE FLUXO PROCESSADA) ---
Ponto D_cap(mm) L_cap(mm) rho(g/cm³) t_ext(s) P_ext(bar) M_ext(g) Q_calc(mm³/s)  τw (Pa) γ̇aw (s⁻¹) ηa (Pa·s) γ̇w (s⁻¹) η (Pa·s)
    1     1.500     43.00     1.6300  30.2554     0.4506   1.7700       35.8907 129.7909   108.3199    1.1982  132.7748   0.9775
    2     1.500     43.00     1.6300  30.1822     0.4370   1.8200       36.9941 125.8779   111.6500    1.1274  136.8567   0.9198
    3     1.500     43.00     1.6300  30.3435     0.4353   1.8700       37.8083 125.4026   114.1075    1.0990  139.8690   0.8966
    4     1.500     43.00     1.6300  30.3538     0.4659   2.1100       42.6463 134.1958   128.7087    1.0426  157.7667   0.8506
    5     1.500     43.00     1.6300  30.3668     0.4778   2.2700       45.8606 137.6192   138.4095    0.9943  169.6576   0.8112
    6     1.500     43.00     1.6300  30.2916     0.5814   3.0200       61.1642 167.4780   184.5964    0.9073  226.2719   0.7402
    7     1.500     43.00     1.6300  30.1542     0.6003   3.0200       61.4429 172.9052   185.4377    0.9324  227.3031   0.7607
    8     1.500     43.00     1.6300  30.3056     0.5883   3.0500       61.7432 169.4563   186.3441    0.9094  228.4141   0.7419
    9     1.500     43.00     1.6300  30.0774     0.5933   3.0300       61.8037 170.9011   186.5266    0.9162  228.6378   0.7475
   10     1.500     43.00     1.6300  30.2967     0.5983   3.1300       63.3814 172.3424   191.2882    0.9010  234.4745   0.7350
   11     1.500     43.00     1.6300  30.1849     0.6075   3.1800       64.6324 174.9816   195.0637    0.8970  239.1023   0.7318
   12     1.500     43.00     1.6300  30.1813     0.6242   3.3000       67.0793 179.8024   202.4485    0.8881  248.1543   0.7246
   13     1.500     43.00     1.6300  30.3836     0.6436   3.5300       71.2768 185.3960   215.1170    0.8618  263.6829   0.7031
   14     1.500     43.00     1.6300  30.3774     0.6557   3.5900       72.5031 188.8759   218.8178    0.8632  268.2192   0.7042
   15     1.500     43.00     1.6300  30.1838     0.6640   3.7400       76.0169 191.2791   229.4226    0.8337  281.2183   0.6802
   16     1.500     43.00     1.6300  20.1996     0.8289   2.6400       80.1815 238.7692   241.9917    0.9867  296.6249   0.8050
   17     1.500     43.00     1.6300  20.2053     0.8301   2.6800       81.3733 239.1103   245.5886    0.9736  301.0340   0.7943
   18     1.500     43.00     1.6300  20.2621     0.8265   2.7400       82.9618 238.0863   250.3829    0.9509  306.9107   0.7758
   19     1.500     43.00     1.6300  30.0762     0.7346   4.1500       84.6519 211.5957   255.4837    0.8282  313.1630   0.6757
   20     1.500     43.00     1.6300  30.0802     0.7452   4.2300       86.2724 214.6544   260.3745    0.8244  319.1580   0.6726
   21     1.500     43.00     1.6300  30.0820     0.7391   4.2500       86.6753 212.9071   261.5902    0.8139  320.6482   0.6640
   22     1.500     43.00     1.6300  20.2788     0.8229   2.9100       88.0366 237.0493   265.6989    0.8922  325.6845   0.7278
   23     1.500     43.00     1.6300  20.2146     0.7836   2.9200       88.6195 225.7282   267.4582    0.8440  327.8409   0.6885
   24     1.500     43.00     1.6300  30.2928     0.7526   4.4300       89.7173 216.7918   270.7713    0.8006  331.9020   0.6532
   25     1.500     43.00     1.6300  30.2960     0.7495   4.5900       92.9480 215.9040   280.5216    0.7697  343.8536   0.6279
   26     1.500     43.00     1.6300  20.0933     0.8208   3.0700       93.7347 236.4222   282.8960    0.8357  346.7641   0.6818
   27     1.500     43.00     1.6300  20.2070     0.9467   3.1500       95.6360 272.7096   288.6341    0.9448  353.7977   0.7708
   28     1.500     43.00     1.6300  20.3189     0.9312   3.2700       98.7324 268.2323   297.9794    0.9002  365.2528   0.7344
   29     1.500     43.00     1.6300  20.2115     0.9404   3.2800       99.5606 270.8766   300.4789    0.9015  368.3166   0.7354
   30     1.500     43.00     1.6300  20.1976     0.9305   3.2900       99.9331 268.0369   301.6030    0.8887  369.6944   0.7250
   31     1.500     43.00     1.6300  20.3705     0.9385   3.3600      101.1927 270.3434   305.4046    0.8852  374.3544   0.7222
   32     1.500     43.00     1.6300  20.2214     0.9408   3.3500      101.6356 271.0138   306.7412    0.8835  375.9926   0.7208
   33     1.500     43.00     1.6300  20.0311     0.9421   3.3500      102.6014 271.3741   309.6559    0.8764  379.5655   0.7150
   34     1.500     43.00     1.6300  20.1578     1.0017   3.6900      112.3039 288.5455   338.9388    0.8513  415.4594   0.6945
   35     1.500     43.00     1.6300  20.1942     1.0191   3.9700      120.6082 293.5628   364.0015    0.8065  446.1804   0.6579
   36     1.500     43.00     1.6300  20.3344     1.0177   4.0500      122.1904 293.1520   368.7765    0.7949  452.0334   0.6485
   37     1.500     43.00     1.6300  20.3301     1.0019   4.0700      122.8197 288.6111   370.6760    0.7786  454.3617   0.6352
   38     1.500     43.00     1.6300  20.3769     1.0321   4.1800      125.8493 297.2997   379.8194    0.7827  465.5694   0.6386
   39     1.500     43.00     1.6300  20.3202     1.0095   4.3000      129.8235 290.7907   391.8139    0.7422  480.2718   0.6055
   40     1.500     43.00     1.6300  20.1580     1.0415   4.3200      131.4768 299.9952   396.8035    0.7560  486.3879   0.6168
   41     1.500     43.00     1.6300  30.4107     1.2847   6.8000      137.1814 370.0544   414.0201    0.8938  507.4914   0.7292
   42     1.500     43.00     1.6300  30.1883     1.0589   7.4100      150.5884 305.0265   454.4833    0.6712  557.0898   0.5475
   43     1.500     43.00     1.6300  30.1841     1.0676   7.6900      156.3006 307.5378   471.7229    0.6519  578.2215   0.5319
   44     1.500     43.00     1.6300  30.1895     1.0759   7.9300      161.1499 309.9294   486.3584    0.6372  596.1612   0.5199
   45     1.500     43.00     1.6300  20.2264     1.2258   5.3500      162.2736 353.0815   489.7496    0.7209  600.3180   0.5882
   46     1.500     43.00     1.6300  20.2532     1.2080   5.5700      168.7231 347.9793   509.2145    0.6834  624.1775   0.5575
   47     1.500     43.00     1.6300  30.1976     1.0864   8.3300      169.2328 312.9267   510.7528    0.6127  626.0630   0.4998
   48     1.500     43.00     1.6300  30.1816     1.1087   8.3900      170.5420 319.3612   514.7042    0.6205  630.9065   0.5062
   49     1.500     43.00     1.6300  20.3902     1.2428   5.7600      173.3057 358.0006   523.0451    0.6845  641.1305   0.5584
   50     1.500     43.00     1.6300  20.1792     1.2584   5.7700      175.4224 362.4769   529.4334    0.6847  648.9610   0.5585
   51     1.500     43.00     1.6300  20.2222     1.2340   5.9500      180.5096 355.4483   544.7867    0.6525  667.7806   0.5323
   52     1.500     43.00     1.6300  20.4443     1.2748   6.0600      181.8501 367.2041   548.8326    0.6691  672.7399   0.5458
   53     1.500     43.00     1.6300  30.1843     1.2810   9.4200      191.4617 368.9992   577.8410    0.6386  708.2973   0.5210
   54     1.500     43.00     1.6300  30.1899     1.2979  10.6200      215.8121 373.8503   651.3315    0.5740  798.3794   0.4683
   55     1.500     43.00     1.6300  30.4009     1.2916  10.7600      217.1394 372.0446   655.3375    0.5677  803.2899   0.4632
   56     1.500     43.00     1.6300  30.4009     1.2864  11.1700      225.4129 370.5368   680.3074    0.5447  833.8971   0.4443
   57     1.500     43.00     1.6300  20.2224     1.5165   8.3000      251.8010 436.8281   759.9477    0.5748  931.5175   0.4689
   58     1.500     43.00     1.6300  30.3016     1.7057  12.4900      252.8766 491.3285   763.1941    0.6438  935.4968   0.5252
   59     1.500     43.00     1.6300  20.2241     1.5471   8.4800      257.2402 445.6455   776.3635    0.5740  951.6393   0.4683
   60     1.500     43.00     1.6300  20.2203     1.4045   8.6200      261.5370 404.5833   789.3315    0.5126  967.5351   0.4182
   61     1.500     43.00     1.6300  30.3044     1.6982  13.5300      273.9079 489.1809   826.6676    0.5918 1013.3004   0.4828
   62     1.500     43.00     1.6300  20.3339     1.6153   9.3700      282.7043 465.2997   853.2154    0.5453 1045.8417   0.4449
   63     1.500     43.00     1.6300  20.2202     1.4962   9.3200      282.7760 430.9716   853.4319    0.5050 1046.1072   0.4120
   64     1.500     43.00     1.6300  20.2147     1.5669   9.5600      290.1372 451.3569   875.6485    0.5155 1073.3395   0.4205
   65     1.500     43.00     1.6300  20.1022     1.6233   9.6400      294.2017 467.5863   887.9152    0.5266 1088.3755   0.4296
   66     1.500     43.00     1.6300  20.3260     1.5931   9.9400      300.0173 458.9091   905.4671    0.5068 1109.8901   0.4135
   67     1.500     43.00     1.6300  30.3623     1.6958  15.0100      303.2899 488.4917   915.3437    0.5337 1121.9965   0.4354
   68     1.500     43.00     1.6300  20.4477     1.7276  10.6000      318.0341 497.6365   959.8425    0.5185 1176.5415   0.4230
   69     1.500     43.00     1.6300  20.2737     1.7841  10.8300      327.7229 513.9238   989.0840    0.5196 1212.3848   0.4239
   70     1.500     43.00     1.6300  30.3544     1.6826  16.3700      330.8560 484.6700   998.5399    0.4854 1223.9754   0.3960
   71     1.500     43.00     1.6300  30.1496     1.6902  16.4300      334.3246 486.8552  1009.0080    0.4825 1236.8069   0.3936
   72     1.500     43.00     1.6300  20.3028     1.7594  11.4000      344.4772 506.7960  1039.6493    0.4875 1274.3659   0.3977
   73     1.500     43.00     1.6300  20.2481     1.7405  12.1600      368.4349 501.3689  1111.9548    0.4509 1362.9955   0.3678
   74     1.500     43.00     1.6300  20.2481     1.7405  12.2000      369.6469 501.3689  1115.6125    0.4494 1367.4790   0.3666
   75     1.500     43.00     1.6300  20.3039     1.7470  12.2500      370.1417 503.2286  1117.1059    0.4505 1369.3095   0.3675
   76     1.500     43.00     1.6300  20.3311     1.8892  13.2300      399.2195 544.1895  1204.8640    0.4517 1476.8804   0.3685
   77     1.500     43.00     1.6300  20.0970     1.6821  13.9200      424.9336 484.5196  1282.4704    0.3778 1572.0076   0.3082
   78     1.500     43.00     1.6300  20.5027     1.8344  14.3100      428.1939 528.3957  1292.3103    0.4089 1584.0689   0.3336
   79     1.500     43.00     1.6300  20.3284     1.7528  14.4500      436.0911 504.9072  1316.1445    0.3836 1613.2841   0.3130
   80     1.500     43.00     1.6300  20.3281     1.7038  14.7200      444.2451 490.7818  1340.7536    0.3660 1643.4491   0.2986
   81     1.500     43.00     1.6300  20.8199     1.6988  15.3300      451.7259 489.3464  1363.3309    0.3589 1671.1236   0.2928
   82     1.500     43.00     1.6300  20.5160     2.0444  15.3300      458.4178 588.8931  1383.5275    0.4256 1695.8799   0.3472
   83     1.500     43.00     1.6300  20.3295     1.9378  15.4300      465.6407 558.1875  1405.3265    0.3972 1722.6003   0.3240
   84     1.500     43.00     1.6300  20.3899     1.8732  15.7300      473.2878 539.5754  1428.4061    0.3777 1750.8904   0.3082
   85     1.500     43.00     1.6300  24.0874     1.9039  19.5200      497.1668 548.4298  1500.4738    0.3655 1839.2286   0.2982
   86     1.500     43.00     1.6300  30.3052     1.9819  25.7200      520.6741 570.9029  1571.4200    0.3633 1926.1919   0.2964
   87     1.500     43.00     1.6300  20.2913     1.7415  17.3200      523.6600 501.6301  1580.4318    0.3174 1937.2383   0.2589
   88     1.500     43.00     1.6300  20.3357     1.7380  17.3600      523.7238 500.6455  1580.6244    0.3167 1937.4744   0.2584
   89     1.500     43.00     1.6300  20.3627     1.9302  17.4500      525.7414 556.0052  1586.7134    0.3504 1944.9380   0.2859
   90     1.500     43.00     1.6300  30.3019     2.0465  26.0000      526.4003 589.4985  1588.7019    0.3711 1947.3756   0.3027
   91     1.500     43.00     1.6300  30.5146     2.0349  26.7400      537.6081 586.1498  1622.5277    0.3613 1988.8380   0.2947
   92     1.500     43.00     1.6300  30.5159     2.0326  26.7800      538.3899 585.5086  1624.8874    0.3603 1991.7304   0.2940
   93     1.500     43.00     1.6300  20.4969     1.9754  18.0100      539.0612 569.0203  1626.9133    0.3498 1994.2137   0.2853
   94     1.500     43.00     1.6300  20.5007     2.0113  18.0800      541.0556 579.3537  1632.9324    0.3548 2001.5917   0.2894
   95     1.500     43.00     1.6300  20.3277     2.0139  17.9800      542.6431 580.1020  1637.7237    0.3542 2007.4647   0.2890
   96     1.500     43.00     1.6300  30.4107     2.0261  27.1200      547.1108 583.6349  1651.2073    0.3535 2023.9925   0.2884
   97     1.500     43.00     1.6300  20.7306     2.5818  18.5400      548.6685 743.6892  1655.9087    0.4491 2029.7553   0.3664
   98     1.500     43.00     1.6300  20.5545     1.9835  18.6100      555.4584 571.3449  1676.4008    0.3408 2054.8737   0.2780
   99     1.500     43.00     1.6300  20.2959     2.0048  18.5500      560.7223 577.4755  1692.2874    0.3412 2074.3471   0.2784
  100     1.500     43.00     1.6300  30.5749     2.2659  39.2100      786.7624 652.6922  2374.4878    0.2749 2910.5645   0.2242
  101     1.500     43.00     1.6300  30.3586     2.2532  39.5700      799.6441 649.0473  2413.3654    0.2689 2958.2193   0.2194
  102     1.500     43.00     1.6300  30.4785     2.2766  39.8700      802.5372 655.7889  2422.0968    0.2708 2968.9219   0.2209
  103     1.500     43.00     1.6300  30.3013     2.3148  39.9000      807.8372 666.7834  2438.0925    0.2735 2988.5289   0.2231
  104     1.500     43.00     1.6300  30.4681     2.2443  40.2400      810.2608 646.4716  2445.4071    0.2644 2997.4950   0.2157
  105     1.500     43.00     1.6300  20.5872     2.5745  28.2200      840.9522 741.5840  2538.0351    0.2922 3111.0352   0.2384
  106     1.500     43.00     1.6300  20.2986     2.5633  37.2700     1126.4347 738.3577  3399.6354    0.2172 4167.1548   0.1772
  107     1.500     43.00     1.6300  20.4840     2.5879  41.4200     1240.5330 745.4445  3743.9896    0.1991 4589.2521   0.1624

--- MELHOR MODELO REOLÓGICO AJUSTADO ---
                       Parâmetro   Valor Estimado Erro Padrão (+/-)
       Modelo Reológico Ajustado Herschel-Bulkley               N/A
Coeficiente de Determinação (R²)          0.95175               N/A
                         τ₀ (Pa)       3.3273e-11           46.0541
                       K (Pa·sⁿ)         17.18331            8.3688
                           n (-)          0.46146            0.0535

Comportamento do Fluido Inferido: Viscoplástico (tensão de escoamento τ₀ ≈ 0) e Pseudoplástico (n = 0.461 < 1)

--- ARQUIVOS GERADOS NESTA SESSÃO ---
- 20251029_225051_comparativo_viscosidades.png
- 20251029_225051_curva_fluxo.png
- 20251029_225051_curva_viscosidade.png
- 20251029_225051_n_prime.png
- 20251029_225051_parametros_modelos.json
- 20251029_225051_pressao_vs_viscosidade.png
- 20251029_225051_resultados_reologicos.csv
- 20251029_225051_resumo_melhor_modelo.csv

======================================================================
FIM DO RELATÓRIO
======================================================================
