======================================================================
RELATÓRIO DE ANÁLISE REOLÓGICA
======================================================================
Sessão: 20251029_161631
Data da Geração: 2025-10-29 16:17:01
Pasta de Saída: resultados_analise_reologica\3x64_20251029_161631

--- PARÂMETROS GLOBAIS DO ENSAIO ---
Densidade da Pasta: 1.630 g/cm³
Tempo de Extrusão: Variável (ver tabela)
Fator de Calibração Empírico Aplicado: 0.2804

--- ORIGEM DOS DADOS EXPERIMENTAIS ---
Método de Entrada: Arquivo(s) JSON
  Arquivos JSON Utilizados (da pasta 'resultados_testes_reometro/'):
    - 40%3x64mm_2025-10-29.json

--- CONFIGURAÇÃO DE CORREÇÕES E CALIBRAÇÃO ---
Correção de Bagley (ao vivo): Não
Correção de Mooney (ao vivo): Não

--- GEOMETRIA DO CAPILAR ÚNICO (SEM CORREÇÕES) ---
Diâmetro: 3.000 mm
Comprimento: 64.00 mm

--- RESULTADOS PRINCIPAIS (CURVA DE FLUXO PROCESSADA) ---
Ponto D_cap(mm) L_cap(mm) rho(g/cm³) t_ext(s) P_ext(bar) M_ext(g) Q_calc(mm³/s)  τw (Pa) γ̇aw (s⁻¹) ηa (Pa·s) γ̇w (s⁻¹) η (Pa·s)
    1     3.000     64.00     1.6300  10.1102     0.2240   0.9800       59.4675  73.6099    22.4345    3.2811   33.1622   2.2197
    2     3.000     64.00     1.6300  10.0046     0.2396   1.1200       68.6797  78.7242    25.9099    3.0384   38.2994   2.0555
    3     3.000     64.00     1.6300  10.2218     0.2486   1.1700       70.2217  81.6930    26.4916    3.0837   39.1593   2.0862
    4     3.000     64.00     1.6300  10.2178     0.2452   1.1700       70.2488  80.5698    26.5018    3.0402   39.1744   2.0567
    5     3.000     64.00     1.6300  10.2154     0.2564   1.3400       80.4749  84.2398    30.3597    2.7747   44.8770   1.8771
    6     3.000     64.00     1.6300  10.2143     0.2593   1.3700       82.2861  85.1881    31.0429    2.7442   45.8870   1.8565
    7     3.000     64.00     1.6300   6.9646     0.4088   1.2100      106.5862 134.3439    40.2103    3.3410   59.4381   2.2602
    8     3.000     64.00     1.6300  10.3324     0.3149   2.0400      121.1267 103.4634    45.6958    2.2642   67.5466   1.5317
    9     3.000     64.00     1.6300   9.9987     0.3256   2.2100      135.6007 106.9931    51.1562    2.0915   75.6181   1.4149
   10     3.000     64.00     1.6300  10.3291     0.3374   2.3800      141.3601 110.8561    53.3290    2.0787   78.8298   1.4063
   11     3.000     64.00     1.6300  10.2172     0.3339   2.3700      142.3081 109.7088    53.6866    2.0435   79.3585   1.3824
   12     3.000     64.00     1.6300  10.2169     0.3357   2.3800      142.9121 110.3200    53.9145    2.0462   79.6953   1.3843
   13     3.000     64.00     1.6300  18.3012     0.5194   4.7300      158.5599 170.6709    59.8177    2.8532   88.4214   1.9302
   14     3.000     64.00     1.6300  18.2976     0.5275   4.7600      159.5971 173.3360    60.2090    2.8789   88.9998   1.9476
   15     3.000     64.00     1.6300  18.6431     0.5365   4.8600      159.9303 176.2923    60.3347    2.9219   89.1856   1.9767
   16     3.000     64.00     1.6300  18.2969     0.5134   4.8800      163.6269 168.7090    61.7292    2.7330   91.2470   1.8489
   17     3.000     64.00     1.6300  18.6363     0.5290   5.0700      166.9018 173.8322    62.9647    2.7608   93.0732   1.8677
   18     3.000     64.00     1.6300  18.3052     0.5185   5.0000      167.5744 170.3852    63.2185    2.6952   93.4483   1.8233
   19     3.000     64.00     1.6300  18.4131     0.5331   5.1400      171.2567 175.1868    64.6077    2.7115   95.5018   1.8344
   20     3.000     64.00     1.6300  17.0659     0.5428   4.8100      172.9130 178.3611    65.2325    2.7342   96.4254   1.8497
   21     3.000     64.00     1.6300  18.4137     0.5239   5.2300      174.2501 172.1402    65.7369    2.6186   97.1710   1.7715
   22     3.000     64.00     1.6300  18.2976     0.5405   5.2300      175.3561 177.5912    66.1542    2.6845   97.7878   1.8161
   23     3.000     64.00     1.6300  18.4082     0.5445   5.7500      191.6322 178.9231    72.2944    2.4749  106.8642   1.6743
   24     3.000     64.00     1.6300  18.2958     0.5704   5.7700      193.4805 187.4238    72.9917    2.5677  107.8949   1.7371
   25     3.000     64.00     1.6300  18.4207     0.5547   5.9400      197.8306 182.2865    74.6328    2.4424  110.3207   1.6523
   26     3.000     64.00     1.6300  18.3112     0.5634   6.0000      201.0236 185.1218    75.8374    2.4410  112.1013   1.6514
   27     3.000     64.00     1.6300  18.4049     0.5774   6.2300      207.6667 189.7185    78.3435    2.4216  115.8059   1.6382
   28     3.000     64.00     1.6300  18.2995     0.6465   7.8000      261.4979 212.4196    98.6517    2.1532  145.8250   1.4567
   29     3.000     64.00     1.6300  18.2493     0.6638   8.1900      275.3276 218.1234   103.8690    2.1000  153.5371   1.4207
   30     3.000     64.00     1.6300  18.3059     0.6850   8.4400      282.8553 225.0874   106.7089    2.1094  157.7350   1.4270
   31     3.000     64.00     1.6300  18.2970     0.6682   8.6000      288.3578 219.5704   108.7848    2.0184  160.8035   1.3655
   32     3.000     64.00     1.6300  18.1829     0.6735   8.6700      292.5292 221.2939   110.3584    2.0052  163.1297   1.3566
   33     3.000     64.00     1.6300  10.2182     0.7874  13.5000      810.5335 258.7186   305.7788    0.8461  451.9962   0.5724
   34     3.000     64.00     1.6300  10.2160     0.8236  13.8300      830.5299 270.6325   313.3225    0.8638  463.1472   0.5843
   35     3.000     64.00     1.6300  10.2221     0.8297  13.8500      831.2346 272.6360   313.5884    0.8694  463.5402   0.5882
   36     3.000     64.00     1.6300  10.3209     0.8110  14.6700      872.0159 266.4937   328.9734    0.8101  486.2820   0.5480
   37     3.000     64.00     1.6300  10.2192     0.8330  14.7900      887.8996 273.7203   334.9656    0.8172  495.1395   0.5528
   38     3.000     64.00     1.6300  10.2179     1.0376  25.0000     1501.0281 340.9575   566.2721    0.6021  837.0523   0.4073
   39     3.000     64.00     1.6300  10.1020     1.0691  25.1800     1529.1840 351.3115   576.8941    0.6090  852.7535   0.4120
   40     3.000     64.00     1.6300  10.4425     1.3428  26.5400     1559.2289 441.2196   588.2287    0.7501  869.5081   0.5074
   41     3.000     64.00     1.6300  10.4430     1.1929  27.8900     1638.4650 391.9723   618.1210    0.6341  913.6944   0.4290
   42     3.000     64.00     1.6300  10.7775     1.3526  29.0700     1654.7782 444.4609   624.2753    0.7120  922.7915   0.4816
   43     3.000     64.00     1.6300  10.4419     1.3435  28.4900     1673.8851 441.4817   631.4835    0.6991  933.4465   0.4730
   44     3.000     64.00     1.6300  10.4463     1.2350  29.3800     1725.4439 405.8129   650.9343    0.6234  962.1984   0.4218
   45     3.000     64.00     1.6300  10.4423     1.2556  29.8400     1753.1276 412.5940   661.3782    0.6238  977.6363   0.4220
   46     3.000     64.00     1.6300   9.9903     1.0828  28.5700     1754.4614 355.7897   661.8814    0.5375  978.3801   0.3637
   47     3.000     64.00     1.6300  10.4480     1.2686  34.1300     2004.0732 416.8444   756.0490    0.5513 1117.5767   0.3730
   48     3.000     64.00     1.6300  10.4298     1.3797  35.5200     2089.3464 453.3545   788.2188    0.5752 1165.1296   0.3891
   49     3.000     64.00     1.6300  10.2131     1.1666  36.9800     2221.3703 383.3423   838.0256    0.4574 1238.7530   0.3095
   50     3.000     64.00     1.6300  10.2209     1.2597  49.3200     2960.3720 413.9271  1116.8186    0.3706 1650.8593   0.2507
   51     3.000     64.00     1.6300  10.3303     1.0616  51.2200     3041.8726 348.8454  1147.5652    0.3040 1696.3083   0.2056
   52     3.000     64.00     1.6300  10.5630     0.9694  54.6100     3171.7388 318.5438  1196.5580    0.2662 1768.7286   0.1801
   53     3.000     64.00     1.6300  10.3342     1.1679  54.3200     3224.7327 383.7599  1216.5503    0.3154 1798.2808   0.2134
   54     3.000     64.00     1.6300  10.1932     1.1969  55.6400     3348.7884 393.2831  1263.3511    0.3113 1867.4607   0.2106
   55     3.000     64.00     1.6300  10.2244     1.0074  57.3600     3441.7969 331.0216  1298.4391    0.2549 1919.3271   0.1725
   56     3.000     64.00     1.6300   4.7295     1.4563  29.4300     3817.5650 478.5289  1440.1999    0.3323 2128.8752   0.2248
   57     3.000     64.00     1.6300  10.2202     1.2888  67.6000     4057.9024 423.5009  1530.8687    0.2766 2262.9000   0.1871
   58     3.000     64.00     1.6300   4.6111     1.4730  31.8300     4234.9586 484.0223  1597.6642    0.3030 2361.6359   0.2050
   59     3.000     64.00     1.6300   5.4002     1.4904  38.6400     4389.7260 489.7331  1656.0512    0.2957 2447.9423   0.2001
   60     3.000     64.00     1.6300   5.2899     1.4676  39.1200     4536.9579 482.2355  1711.5953    0.2817 2530.0466   0.1906
   61     3.000     64.00     1.6300   5.2850     1.4587  41.4200     4808.1380 479.3142  1813.8997    0.2642 2681.2709   0.1788
   62     3.000     64.00     1.6300   5.4029     1.5146  58.4900     6641.4876 497.6878  2505.5421    0.1986 3703.6431   0.1344
   63     3.000     64.00     1.6300   5.4037     1.5561  59.0400     6702.9522 511.3282  2528.7300    0.2022 3737.9191   0.1368
   64     3.000     64.00     1.6300   5.5131     1.6122  61.2700     6818.1589 529.7523  2572.1924    0.2060 3802.1644   0.1393
   65     3.000     64.00     1.6300   5.2893     1.3871  59.6900     6923.3593 455.7893  2611.8800    0.1745 3860.8297   0.1181
   66     3.000     64.00     1.6300   5.1721     1.4993  58.8700     6982.9429 492.6689  2634.3582    0.1870 3894.0566   0.1265
   67     3.000     64.00     1.6300   5.0642     1.3544  57.8600     7009.3204 445.0350  2644.3093    0.1683 3908.7661   0.1139
   68     3.000     64.00     1.6300   5.2864     1.4616  65.4300     7593.2093 480.2822  2864.5850    0.1677 4234.3733   0.1134
   69     3.000     64.00     1.6300   5.1729     1.4953  78.4200     9300.4609 491.3435  3508.6562    0.1400 5186.4267   0.0947
   70     3.000     64.00     1.6300   5.2861     1.5164  82.7700     9606.1273 498.2836  3623.9707    0.1375 5356.8823   0.0930
   71     3.000     64.00     1.6300   5.3932     1.4813  91.7900    10441.5343 486.7463  3939.1331    0.1236 5822.7492   0.0836
   72     3.000     64.00     1.6300   5.4010     1.8577 123.1600    13989.7202 610.4319  5277.7081    0.1157 7801.4045   0.0782

--- MELHOR MODELO REOLÓGICO AJUSTADO ---
                       Parâmetro   Valor Estimado Erro Padrão (+/-)
       Modelo Reológico Ajustado Herschel-Bulkley               N/A
Coeficiente de Determinação (R²)          0.90652               N/A
                         τ₀ (Pa)          0.00000           66.9567
                       K (Pa·sⁿ)         47.89853           31.8918
                           n (-)          0.28473            0.0656

Comportamento do Fluido Inferido: Viscoplástico (tensão de escoamento τ₀ ≈ 0) e Pseudoplástico (n = 0.285 < 1)

--- ARQUIVOS GERADOS NESTA SESSÃO ---
- 20251029_161631_comparativo_viscosidades.png
- 20251029_161631_curva_fluxo.png
- 20251029_161631_curva_viscosidade.png
- 20251029_161631_n_prime.png
- 20251029_161631_parametros_modelos.json
- 20251029_161631_pressao_vs_viscosidade.png
- 20251029_161631_resultados_reologicos.csv
- 20251029_161631_resumo_melhor_modelo.csv

======================================================================
FIM DO RELATÓRIO
======================================================================
