======================================================================
RELATÓRIO DE ANÁLISE REOLÓGICA
======================================================================
Sessão: 20251020_164348
Data da Geração: 2025-10-20 16:44:38
Pasta de Saída: resultados_analise_reologica\AAA_20251020_164348

--- PARÂMETROS GLOBAIS DO ENSAIO ---
Densidade da Pasta: 1.630 g/cm³
Tempo de Extrusão: Variável (ver tabela)
Fator de Calibração Empírico Aplicado: 0.2893

--- ORIGEM DOS DADOS EXPERIMENTAIS ---
Método de Entrada: Arquivo(s) JSON
  Arquivos JSON Utilizados (da pasta 'resultados_testes_reometro/'):
    - AAAlimpo_Caulim40%H2OCap3x64_20251020_164300.json

--- CONFIGURAÇÃO DE CORREÇÕES E CALIBRAÇÃO ---
Correção de Bagley (ao vivo): Não
Correção de Mooney (ao vivo): Não

--- GEOMETRIA DO CAPILAR ÚNICO (SEM CORREÇÕES) ---
Diâmetro: 3.000 mm
Comprimento: 64.00 mm

--- RESULTADOS PRINCIPAIS (CURVA DE FLUXO PROCESSADA) ---
Ponto D_cap(mm) L_cap(mm) rho(g/cm³) t_ext(s) P_ext(bar) M_ext(g) Q_calc(mm³/s)  τw (Pa) γ̇aw (s⁻¹) ηa (Pa·s) γ̇w (s⁻¹) η (Pa·s)
    1     3.000     64.00     1.6300  10.1102     0.2240   0.9800       59.4675  75.9463    22.4345    3.3852   33.1622   2.2901
    2     3.000     64.00     1.6300  10.0046     0.2396   1.1200       68.6797  81.2229    25.9099    3.1348   38.2994   2.1207
    3     3.000     64.00     1.6300  10.2218     0.2486   1.1700       70.2217  84.2860    26.4916    3.1816   39.1593   2.1524
    4     3.000     64.00     1.6300  10.2178     0.2452   1.1700       70.2488  83.1271    26.5018    3.1367   39.1744   2.1220
    5     3.000     64.00     1.6300  10.2154     0.2564   1.3400       80.4749  86.9136    30.3597    2.8628   44.8770   1.9367
    6     3.000     64.00     1.6300  10.2143     0.2593   1.3700       82.2861  87.8920    31.0429    2.8313   45.8870   1.9154
    7     3.000     64.00     1.6300   6.9646     0.4088   1.2100      106.5862 138.6080    40.2103    3.4471   59.4381   2.3320
    8     3.000     64.00     1.6300  10.3324     0.3149   2.0400      121.1267 106.7473    45.6958    2.3360   67.5466   1.5804
    9     3.000     64.00     1.6300   9.9987     0.3256   2.2100      135.6007 110.3891    51.1562    2.1579   75.6181   1.4598
   10     3.000     64.00     1.6300  10.3291     0.3374   2.3800      141.3601 114.3747    53.3290    2.1447   78.8298   1.4509
   11     3.000     64.00     1.6300  10.2172     0.3339   2.3700      142.3081 113.1910    53.6866    2.1084   79.3585   1.4263
   12     3.000     64.00     1.6300  10.2169     0.3357   2.3800      142.9121 113.8216    53.9145    2.1112   79.6953   1.4282
   13     3.000     64.00     1.6300  18.3012     0.5194   4.7300      158.5599 176.0880    59.8177    2.9437   88.4214   1.9915
   14     3.000     64.00     1.6300  18.2976     0.5275   4.7600      159.5971 178.8377    60.2090    2.9703   88.9998   2.0094
   15     3.000     64.00     1.6300  18.6431     0.5365   4.8600      159.9303 181.8879    60.3347    3.0146   89.1856   2.0394
   16     3.000     64.00     1.6300  18.2969     0.5134   4.8800      163.6269 174.0639    61.7292    2.8198   91.2470   1.9076
   17     3.000     64.00     1.6300  18.6363     0.5290   5.0700      166.9018 179.3497    62.9647    2.8484   93.0732   1.9270
   18     3.000     64.00     1.6300  18.3052     0.5185   5.0000      167.5744 175.7933    63.2185    2.7807   93.4483   1.8812
   19     3.000     64.00     1.6300  18.4131     0.5331   5.1400      171.2567 180.7473    64.6077    2.7976   95.5018   1.8926
   20     3.000     64.00     1.6300  17.0659     0.5428   4.8100      172.9130 184.0223    65.2325    2.8210   96.4254   1.9084
   21     3.000     64.00     1.6300  18.4137     0.5239   5.2300      174.2501 177.6040    65.7369    2.7017   97.1710   1.8277
   22     3.000     64.00     1.6300  18.2976     0.5405   5.2300      175.3561 183.2280    66.1542    2.7697   97.7878   1.8737
   23     3.000     64.00     1.6300  18.4082     0.5445   5.7500      191.6322 184.6022    72.2944    2.5535  106.8642   1.7274
   24     3.000     64.00     1.6300  18.2958     0.5704   5.7700      193.4805 193.3727    72.9917    2.6492  107.8949   1.7922
   25     3.000     64.00     1.6300  18.4207     0.5547   5.9400      197.8306 188.0724    74.6328    2.5200  110.3207   1.7048
   26     3.000     64.00     1.6300  18.3112     0.5634   6.0000      201.0236 190.9977    75.8374    2.5185  112.1013   1.7038
   27     3.000     64.00     1.6300  18.4049     0.5774   6.2300      207.6667 195.7402    78.3435    2.4985  115.8059   1.6902
   28     3.000     64.00     1.6300  18.2995     0.6465   7.8000      261.4979 219.1619    98.6517    2.2216  145.8250   1.5029
   29     3.000     64.00     1.6300  18.2493     0.6638   8.1900      275.3276 225.0467   103.8690    2.1666  153.5371   1.4657
   30     3.000     64.00     1.6300  18.3059     0.6850   8.4400      282.8553 232.2317   106.7089    2.1763  157.7350   1.4723
   31     3.000     64.00     1.6300  18.2970     0.6682   8.6000      288.3578 226.5396   108.7848    2.0825  160.8035   1.4088
   32     3.000     64.00     1.6300  18.1829     0.6735   8.6700      292.5292 228.3178   110.3584    2.0689  163.1297   1.3996
   33     3.000     64.00     1.6300  10.2182     0.7874  13.5000      810.5335 266.9305   305.7788    0.8730  451.9962   0.5906
   34     3.000     64.00     1.6300  10.2160     0.8236  13.8300      830.5299 279.2224   313.3225    0.8912  463.1472   0.6029
   35     3.000     64.00     1.6300  10.2221     0.8297  13.8500      831.2346 281.2896   313.5884    0.8970  463.5402   0.6068
   36     3.000     64.00     1.6300  10.3209     0.8110  14.6700      872.0159 274.9523   328.9734    0.8358  486.2820   0.5654
   37     3.000     64.00     1.6300  10.2192     0.8330  14.7900      887.8996 282.4083   334.9656    0.8431  495.1395   0.5704
   38     3.000     64.00     1.6300  10.2179     1.0376  25.0000     1501.0281 351.7796   566.2721    0.6212  837.0523   0.4203
   39     3.000     64.00     1.6300  10.1020     1.0691  25.1800     1529.1840 362.4623   576.8941    0.6283  852.7535   0.4250
   40     3.000     64.00     1.6300  10.4425     1.3428  26.5400     1559.2289 455.2241   588.2287    0.7739  869.5081   0.5235
   41     3.000     64.00     1.6300  10.4430     1.1929  27.8900     1638.4650 404.4136   618.1210    0.6543  913.6944   0.4426
   42     3.000     64.00     1.6300  10.7775     1.3526  29.0700     1654.7782 458.5682   624.2753    0.7346  922.7915   0.4969
   43     3.000     64.00     1.6300  10.4419     1.3435  28.4900     1673.8851 455.4945   631.4835    0.7213  933.4465   0.4880
   44     3.000     64.00     1.6300  10.4463     1.2350  29.3800     1725.4439 418.6935   650.9343    0.6432  962.1984   0.4351
   45     3.000     64.00     1.6300  10.4423     1.2556  29.8400     1753.1276 425.6898   661.3782    0.6436  977.6363   0.4354
   46     3.000     64.00     1.6300   9.9903     1.0828  28.5700     1754.4614 367.0826   661.8814    0.5546  978.3801   0.3752
   47     3.000     64.00     1.6300  10.4480     1.2686  34.1300     2004.0732 430.0752   756.0490    0.5688 1117.5767   0.3848
   48     3.000     64.00     1.6300  10.4298     1.3797  35.5200     2089.3464 467.7442   788.2188    0.5934 1165.1296   0.4015
   49     3.000     64.00     1.6300  10.2131     1.1666  36.9800     2221.3703 395.5098   838.0256    0.4720 1238.7530   0.3193
   50     3.000     64.00     1.6300  10.2209     1.2597  49.3200     2960.3720 427.0653  1116.8186    0.3824 1650.8593   0.2587
   51     3.000     64.00     1.6300  10.3303     1.0616  51.2200     3041.8726 359.9179  1147.5652    0.3136 1696.3083   0.2122
   52     3.000     64.00     1.6300  10.5630     0.9694  54.6100     3171.7388 328.6545  1196.5580    0.2747 1768.7286   0.1858
   53     3.000     64.00     1.6300  10.3342     1.1679  54.3200     3224.7327 395.9406  1216.5503    0.3255 1798.2808   0.2202
   54     3.000     64.00     1.6300  10.1932     1.1969  55.6400     3348.7884 405.7661  1263.3511    0.3212 1867.4607   0.2173
   55     3.000     64.00     1.6300  10.2244     1.0074  57.3600     3441.7969 341.5283  1298.4391    0.2630 1919.3271   0.1779
   56     3.000     64.00     1.6300   4.7295     1.4563  29.4300     3817.5650 493.7176  1440.1999    0.3428 2128.8752   0.2319
   57     3.000     64.00     1.6300  10.2202     1.2888  67.6000     4057.9024 436.9430  1530.8687    0.2854 2262.9000   0.1931
   58     3.000     64.00     1.6300   4.6111     1.4730  31.8300     4234.9586 499.3853  1597.6642    0.3126 2361.6359   0.2115
   59     3.000     64.00     1.6300   5.4002     1.4904  38.6400     4389.7260 505.2774  1656.0512    0.3051 2447.9423   0.2064
   60     3.000     64.00     1.6300   5.2899     1.4676  39.1200     4536.9579 497.5419  1711.5953    0.2907 2530.0466   0.1967
   61     3.000     64.00     1.6300   5.2850     1.4587  41.4200     4808.1380 494.5278  1813.8997    0.2726 2681.2709   0.1844
   62     3.000     64.00     1.6300   5.4029     1.5146  58.4900     6641.4876 513.4846  2505.5421    0.2049 3703.6431   0.1386
   63     3.000     64.00     1.6300   5.4037     1.5561  59.0400     6702.9522 527.5579  2528.7300    0.2086 3737.9191   0.1411
   64     3.000     64.00     1.6300   5.5131     1.6122  61.2700     6818.1589 546.5668  2572.1924    0.2125 3802.1644   0.1438
   65     3.000     64.00     1.6300   5.2893     1.3871  59.6900     6923.3593 470.2562  2611.8800    0.1800 3860.8297   0.1218
   66     3.000     64.00     1.6300   5.1721     1.4993  58.8700     6982.9429 508.3064  2634.3582    0.1930 3894.0566   0.1305
   67     3.000     64.00     1.6300   5.0642     1.3544  57.8600     7009.3204 459.1606  2644.3093    0.1736 3908.7661   0.1175
   68     3.000     64.00     1.6300   5.2864     1.4616  65.4300     7593.2093 495.5265  2864.5850    0.1730 4234.3733   0.1170
   69     3.000     64.00     1.6300   5.1729     1.4953  78.4200     9300.4609 506.9389  3508.6562    0.1445 5186.4267   0.0977
   70     3.000     64.00     1.6300   5.2861     1.5164  82.7700     9606.1273 514.0993  3623.9707    0.1419 5356.8823   0.0960
   71     3.000     64.00     1.6300   5.3932     1.4813  91.7900    10441.5343 502.1958  3939.1331    0.1275 5822.7492   0.0862
   72     3.000     64.00     1.6300   5.4010     1.8577 123.1600    13989.7202 629.8072  5277.7081    0.1193 7801.4045   0.0807

--- MELHOR MODELO REOLÓGICO AJUSTADO ---
                       Parâmetro   Valor Estimado Erro Padrão (+/-)
       Modelo Reológico Ajustado Herschel-Bulkley               N/A
Coeficiente de Determinação (R²)          0.90652               N/A
                         τ₀ (Pa)          0.00000           69.0820
                       K (Pa·sⁿ)         49.41885           32.9041
                           n (-)          0.28473            0.0656

Comportamento do Fluido Inferido: Viscoplástico (tensão de escoamento τ₀ ≈ 0) e Pseudoplástico (n = 0.285 < 1)

--- ARQUIVOS GERADOS NESTA SESSÃO ---
- 20251020_164348_comparativo_viscosidades.png
- 20251020_164348_curva_fluxo.png
- 20251020_164348_curva_viscosidade.png
- 20251020_164348_n_prime.png
- 20251020_164348_parametros_modelos.json
- 20251020_164348_pressao_vs_viscosidade.png
- 20251020_164348_resultados_reologicos.csv
- 20251020_164348_resumo_melhor_modelo.csv

======================================================================
FIM DO RELATÓRIO
======================================================================
